# Thermally averaged energies (eV) are sorted in increasing order.
# Column-1 ==> Temperature(K)
# Column-2 ==>  Orbital-9
      0.00       -1.018256 
     10.00       -1.018256 
     20.00       -1.018256 
     30.00       -1.018256 
     40.00       -1.018256 
     50.00       -1.018256 
     60.00       -1.018256 
     70.00       -1.018256 
     80.00       -1.018258 
     90.00       -1.018262 
    100.00       -1.018272 
    110.00       -1.018294 
    120.00       -1.018333 
    130.00       -1.018395 
    140.00       -1.018486 
    150.00       -1.018614 
    160.00       -1.018782 
    170.00       -1.018996 
    180.00       -1.019258 
    190.00       -1.019570 
    200.00       -1.019935 
    210.00       -1.020353 
    220.00       -1.020825 
    230.00       -1.021348 
    240.00       -1.021924 
    250.00       -1.022550 
    260.00       -1.023224 
    270.00       -1.023947 
    280.00       -1.024715 
    290.00       -1.025527 
    300.00       -1.026381 
    310.00       -1.027275 
    320.00       -1.028208 
    330.00       -1.029178 
    340.00       -1.030182 
    350.00       -1.031220 
    360.00       -1.032289 
    370.00       -1.033389 
    380.00       -1.034517 
    390.00       -1.035673 
    400.00       -1.036855 
    410.00       -1.038061 
    420.00       -1.039291 
    430.00       -1.040544 
    440.00       -1.041817 
    450.00       -1.043111 
    460.00       -1.044425 
    470.00       -1.045756 
    480.00       -1.047106 
    490.00       -1.048472 
    500.00       -1.049854 
    510.00       -1.051252 
    520.00       -1.052664 
    530.00       -1.054090 
    540.00       -1.055529 
    550.00       -1.056982 
    560.00       -1.058446 
    570.00       -1.059922 
    580.00       -1.061410 
    590.00       -1.062908 
    600.00       -1.064416 
    610.00       -1.065935 
    620.00       -1.067463 
    630.00       -1.069000 
    640.00       -1.070545 
    650.00       -1.072099 
    660.00       -1.073662 
    670.00       -1.075232 
    680.00       -1.076809 
    690.00       -1.078394 
    700.00       -1.079985 
    710.00       -1.081584 
    720.00       -1.083189 
    730.00       -1.084800 
    740.00       -1.086417 
    750.00       -1.088039 
    760.00       -1.089668 
    770.00       -1.091302 
    780.00       -1.092941 
    790.00       -1.094585 
    800.00       -1.096234 
    810.00       -1.097887 
    820.00       -1.099545 
    830.00       -1.101208 
    840.00       -1.102875 
    850.00       -1.104546 
    860.00       -1.106221 
    870.00       -1.107900 
    880.00       -1.109582 
    890.00       -1.111268 
    900.00       -1.112958 
    910.00       -1.114651 
    920.00       -1.116348 
    930.00       -1.118048 
    940.00       -1.119751 
    950.00       -1.121457 
    960.00       -1.123166 
    970.00       -1.124877 
    980.00       -1.126592 
    990.00       -1.128309 
   1000.00       -1.130029 
   1010.00       -1.131752 
   1020.00       -1.133477 
   1030.00       -1.135204 
   1040.00       -1.136934 
   1050.00       -1.138666 
   1060.00       -1.140401 
   1070.00       -1.142137 
   1080.00       -1.143876 
   1090.00       -1.145617 
   1100.00       -1.147359 
